VM 8/8/120/3   :Sample type 10 Vertical Monopole
 9     9 parameters
  -.29  [ 1] Max Gain dBi..:
  10    [ 2] Antenna Type..:
   4    [ 3] Dielectric....:
 .01000 [ 4] Conductivity..:
10.000  [ 5] Operating Freq:
  8.00  [ 6] Ht. abv Ground:
   8.0  [ 7] Earth radius..:
   3    [ 8] Wire diameter.:
 120    [ 9] Wire number...:
  2 MHz =   2.27  -11.98 -6.95 -4.37 -2.74 -1.62  -.80  -.18   .31   .69  1.01
                    1.26  1.47  1.65  1.79  1.91  2.01  2.08  2.15  2.20  2.23
                    2.26  2.27  2.27  2.27  2.26  2.24  2.21  2.18  2.14  2.09
                    2.04  1.98  1.91  1.84  1.76  1.68  1.59  1.50  1.40  1.29
                    1.18  1.07   .95   .82   .68   .54   .40   .24   .08  -.08
                    -.26  -.44  -.62  -.82 -1.02 -1.24 -1.46 -1.69 -1.93 -2.18
                   -2.44 -2.71 -3.00 -3.30 -3.61 -3.94 -4.28 -4.65 -5.03 -5.43
                   -5.85 -6.30 -6.78 -7.29 -7.84 -8.42 -9.05 -9.73-10.48-11.29
                  -12.20-13.21-14.36-15.70-17.27-19.21-21.70-25.22-27.73-27.73
  3 MHz =   1.82  -13.64 -8.45 -5.72 -3.97 -2.75 -1.84 -1.14  -.58  -.14   .22
                     .52   .77   .98  1.16  1.30  1.42  1.52  1.61  1.67  1.73
                    1.77  1.79  1.81  1.82  1.82  1.81  1.79  1.76  1.73  1.69
                    1.64  1.59  1.53  1.46  1.39  1.31  1.22  1.13  1.04   .94
                     .83   .71   .59   .47   .34   .20   .05  -.10  -.26  -.42
                    -.59  -.77  -.96 -1.16 -1.36 -1.57 -1.79 -2.02 -2.26 -2.52
                   -2.78 -3.05 -3.34 -3.64 -3.95 -4.28 -4.62 -4.98 -5.36 -5.77
                   -6.19 -6.64 -7.12 -7.63 -8.17 -8.76 -9.39-10.07-10.81-11.63
                  -12.54-13.55-14.70-16.04-17.61-19.55-22.04-25.56-28.18-28.18
  4 MHz =   1.42  -14.86 -9.57 -6.75 -4.93 -3.63 -2.66 -1.91 -1.31  -.83  -.43
                    -.10   .18   .42   .61   .78   .92  1.04  1.14  1.22  1.28
                    1.33  1.37  1.39  1.41  1.42  1.41  1.40  1.38  1.35  1.31
                    1.27  1.22  1.16  1.10  1.03   .96   .87   .78   .69   .59
                     .48   .37   .25   .12  -.01  -.15  -.29  -.44  -.60  -.77
                    -.94 -1.12 -1.31 -1.50 -1.71 -1.92 -2.14 -2.37 -2.62 -2.87
                   -3.13 -3.40 -3.69 -3.99 -4.30 -4.63 -4.98 -5.34 -5.72 -6.13
                   -6.55 -7.00 -7.48 -7.99 -8.54 -9.12 -9.75-10.44-11.18-12.00
                  -12.91-13.92-15.07-16.41-17.99-19.92-22.41-25.93-28.58-28.58
  5 MHz =   1.05  -15.83-10.47 -7.59 -5.71 -4.37 -3.35 -2.56 -1.93 -1.41  -.99
                    -.63  -.33  -.08   .14   .32   .47   .60   .71   .80   .88
                     .94   .98  1.01  1.03  1.05  1.05  1.04  1.02  1.00   .96
                     .92   .87   .82   .76   .69   .61   .53   .44   .35   .25
                     .14   .02  -.10  -.22  -.35  -.49  -.64  -.79  -.95 -1.12
                   -1.30 -1.48 -1.67 -1.86 -2.07 -2.29 -2.51 -2.74 -2.99 -3.24
                   -3.50 -3.78 -4.07 -4.37 -4.69 -5.02 -5.37 -5.73 -6.11 -6.52
                   -6.95 -7.40 -7.88 -8.39 -8.94 -9.52-10.16-10.84-11.59-12.40
                  -13.31-14.33-15.48-16.81-18.39-20.33-22.82-26.34-28.95-28.95
  6 MHz =    .71  -16.62-11.22 -8.29 -6.37 -4.99 -3.94 -3.12 -2.46 -1.92 -1.47
                   -1.10  -.78  -.51  -.28  -.09   .07   .21   .33   .43   .51
                     .58   .63   .66   .69   .70   .71   .70   .69   .66   .63
                     .59   .54   .49   .42   .36   .28   .20   .11   .01  -.09
                    -.20  -.32  -.44  -.57  -.70  -.85 -1.00 -1.15 -1.31 -1.48
                   -1.66 -1.85 -2.04 -2.24 -2.45 -2.67 -2.89 -3.13 -3.38 -3.63
                   -3.90 -4.18 -4.47 -4.78 -5.09 -5.43 -5.78 -6.15 -6.53 -6.94
                   -7.37 -7.82 -8.31 -8.82 -9.37 -9.96-10.59-11.28-12.02-12.84
                  -13.75-14.77-15.92-17.26-18.84-20.77-23.27-26.79-29.29-29.29
  7 MHz =    .40  -17.28-11.84 -8.88 -6.93 -5.52 -4.44 -3.60 -2.92 -2.36 -1.89
                   -1.50 -1.17  -.89  -.65  -.45  -.27  -.13   .00   .10   .19
                     .25   .31   .35   .38   .39   .40   .39   .38   .35   .32
                     .28   .23   .17   .11   .04  -.04  -.12  -.22  -.32  -.42
                    -.53  -.65  -.78  -.91 -1.05 -1.20 -1.35 -1.51 -1.68 -1.85
                   -2.03 -2.22 -2.42 -2.62 -2.84 -3.06 -3.29 -3.53 -3.78 -4.04
                   -4.31 -4.60 -4.89 -5.20 -5.52 -5.86 -6.22 -6.59 -6.98 -7.39
                   -7.82 -8.28 -8.76 -9.28 -9.83-10.42-11.06-11.75-12.50-13.32
                  -14.23-15.25-16.40-17.74-19.32-21.25-23.75-27.27-29.60-29.60
  8 MHz =    .12  -17.82-12.35 -9.37 -7.39 -5.95 -4.86 -4.00 -3.30 -2.72 -2.25
                   -1.84 -1.50 -1.21  -.96  -.75  -.57  -.42  -.29  -.18  -.09
                    -.02   .03   .07   .10   .12   .12   .12   .10   .08   .04
                     .00  -.05  -.11  -.18  -.25  -.34  -.43  -.52  -.63  -.74
                    -.85  -.98 -1.11 -1.24 -1.39 -1.54 -1.70 -1.86 -2.04 -2.22
                   -2.40 -2.60 -2.80 -3.01 -3.23 -3.46 -3.69 -3.94 -4.20 -4.46
                   -4.74 -5.03 -5.33 -5.64 -5.97 -6.31 -6.67 -7.04 -7.44 -7.85
                   -8.29 -8.75 -9.24 -9.76-10.32-10.91-11.55-12.24-12.99-13.82
                  -14.73-15.75-16.91-18.24-19.82-21.76-24.26-27.78-29.88-29.88
  9 MHz =   -.11  -18.26-12.77 -9.76 -7.76 -6.31 -5.20 -4.32 -3.61 -3.02 -2.53
                   -2.12 -1.77 -1.47 -1.21 -1.00  -.81  -.66  -.52  -.42  -.32
                    -.25  -.20  -.15  -.13  -.11  -.11  -.12  -.14  -.16  -.20
                    -.25  -.30  -.37  -.44  -.52  -.61  -.70  -.80  -.91 -1.03
                   -1.15 -1.28 -1.42 -1.56 -1.71 -1.87 -2.03 -2.20 -2.38 -2.57
                   -2.76 -2.96 -3.17 -3.39 -3.62 -3.85 -4.09 -4.35 -4.61 -4.88
                   -5.17 -5.46 -5.77 -6.09 -6.42 -6.77 -7.13 -7.51 -7.91 -8.33
                   -8.77 -9.24 -9.73-10.26-10.82-11.41-12.06-12.75-13.51-14.33
                  -15.25-16.27-17.43-18.77-20.35-22.29-24.79-28.31-30.00-30.00
 10 MHz =   -.29  -18.60-13.09-10.06 -8.05 -6.58 -5.45 -4.56 -3.84 -3.24 -2.74
                   -2.32 -1.96 -1.66 -1.40 -1.18  -.99  -.84  -.70  -.59  -.50
                    -.43  -.37  -.33  -.31  -.30  -.29  -.31  -.33  -.36  -.40
                    -.45  -.51  -.58  -.66  -.75  -.84  -.94 -1.05 -1.16 -1.29
                   -1.42 -1.55 -1.70 -1.85 -2.01 -2.17 -2.35 -2.52 -2.71 -2.91
                   -3.11 -3.32 -3.53 -3.76 -3.99 -4.23 -4.49 -4.75 -5.02 -5.30
                   -5.59 -5.89 -6.20 -6.53 -6.87 -7.22 -7.59 -7.98 -8.38 -8.81
                   -9.26 -9.73-10.23-10.76-11.32-11.92-12.57-13.27-14.02-14.85
                  -15.77-16.80-17.96-19.30-20.89-22.82-25.32-28.85-30.00-30.00
 11 MHz =   -.43  -18.85-13.32-10.28 -8.25 -6.77 -5.63 -4.73 -4.00 -3.39 -2.89
                   -2.46 -2.10 -1.79 -1.53 -1.30 -1.12  -.96  -.82  -.71  -.62
                    -.55  -.50  -.46  -.44  -.43  -.43  -.45  -.47  -.51  -.56
                    -.62  -.68  -.76  -.84  -.94 -1.04 -1.14 -1.26 -1.38 -1.51
                   -1.65 -1.80 -1.95 -2.11 -2.28 -2.45 -2.63 -2.82 -3.02 -3.22
                   -3.43 -3.65 -3.87 -4.11 -4.35 -4.60 -4.86 -5.13 -5.41 -5.69
                   -5.99 -6.30 -6.62 -6.96 -7.31 -7.67 -8.04 -8.44 -8.85 -9.28
                   -9.74-10.21-10.72-11.25-11.82-12.43-13.08-13.78-14.54-15.37
                  -16.29-17.32-18.49-19.83-21.42-23.36-25.86-29.38-30.00-30.00
 12 MHz =   -.52  -19.02-13.48-10.42 -8.38 -6.89 -5.74 -4.83 -4.09 -3.48 -2.96
                   -2.53 -2.17 -1.86 -1.59 -1.37 -1.18 -1.02  -.89  -.78  -.69
                    -.62  -.57  -.54  -.52  -.52  -.52  -.54  -.58  -.62  -.68
                    -.74  -.81  -.90  -.99 -1.09 -1.20 -1.31 -1.44 -1.57 -1.71
                   -1.86 -2.01 -2.18 -2.34 -2.52 -2.70 -2.90 -3.09 -3.30 -3.51
                   -3.73 -3.96 -4.20 -4.44 -4.69 -4.95 -5.22 -5.50 -5.78 -6.08
                   -6.39 -6.71 -7.03 -7.38 -7.73 -8.10 -8.49 -8.89 -9.30 -9.74
                  -10.20-10.69-11.20-11.74-12.31-12.92-13.58-14.28-15.05-15.89
                  -16.81-17.84-19.01-20.35-21.94-23.88-26.38-29.91-30.00-30.00
 13 MHz =   -.56  -19.12-13.56-10.49 -8.44 -6.94 -5.78 -4.86 -4.12 -3.50 -2.99
                   -2.55 -2.18 -1.87 -1.61 -1.38 -1.19 -1.03  -.90  -.80  -.71
                    -.65  -.60  -.57  -.56  -.56  -.58  -.60  -.64  -.70  -.76
                    -.83  -.91 -1.00 -1.10 -1.21 -1.33 -1.46 -1.59 -1.73 -1.88
                   -2.04 -2.21 -2.38 -2.56 -2.75 -2.94 -3.14 -3.35 -3.57 -3.79
                   -4.02 -4.26 -4.51 -4.76 -5.02 -5.29 -5.57 -5.86 -6.15 -6.46
                   -6.77 -7.10 -7.44 -7.79 -8.15 -8.53 -8.92 -9.33 -9.76-10.20
                  -10.67-11.16-11.67-12.22-12.80-13.41-14.07-14.78-15.55-16.39
                  -17.32-18.35-19.52-20.87-22.46-24.40-26.91-30.00-30.00-30.00
 14 MHz =   -.57  -19.15-13.58-10.50 -8.44 -6.93 -5.77 -4.85 -4.10 -3.47 -2.96
                   -2.52 -2.15 -1.84 -1.57 -1.35 -1.16 -1.01  -.88  -.78  -.70
                    -.64  -.60  -.58  -.57  -.58  -.60  -.64  -.68  -.74  -.81
                    -.90  -.99 -1.09 -1.20 -1.32 -1.45 -1.59 -1.73 -1.89 -2.05
                   -2.22 -2.39 -2.58 -2.77 -2.97 -3.18 -3.39 -3.61 -3.84 -4.07
                   -4.31 -4.56 -4.82 -5.08 -5.36 -5.64 -5.93 -6.22 -6.53 -6.84
                   -7.17 -7.51 -7.85 -8.21 -8.58 -8.97 -9.37 -9.78-10.22-10.67
                  -11.14-11.63-12.16-12.71-13.29-13.91-14.57-15.29-16.06-16.90
                  -17.83-18.87-20.04-21.39-22.98-24.93-27.43-30.00-30.00-30.00
 15 MHz = -30.00  -30.00-30.00-30.00-30.00-30.00-30.00-30.00-30.00-30.00-30.00
                  -30.00-30.00-30.00-30.00-30.00-30.00-30.00-30.00-30.00-30.00
                  -30.00-30.00-30.00-30.00-30.00-30.00-30.00-30.00-30.00-30.00
                  -30.00-30.00-30.00-30.00-30.00-30.00-30.00-30.00-30.00-30.00
                  -30.00-30.00-30.00-30.00-30.00-30.00-30.00-30.00-30.00-30.00
                  -30.00-30.00-30.00-30.00-30.00-30.00-30.00-30.00-30.00-30.00
                  -30.00-30.00-30.00-30.00-30.00-30.00-30.00-30.00-30.00-30.00
                  -30.00-30.00-30.00-30.00-30.00-30.00-30.00-30.00-30.00-30.00
                  -30.00-30.00-30.00-30.00-30.00-30.00-30.00-30.00-30.00-30.00
 16 MHz = -30.00  -30.00-30.00-30.00-30.00-30.00-30.00-30.00-30.00-30.00-30.00
                  -30.00-30.00-30.00-30.00-30.00-30.00-30.00-30.00-30.00-30.00
                  -30.00-30.00-30.00-30.00-30.00-30.00-30.00-30.00-30.00-30.00
                  -30.00-30.00-30.00-30.00-30.00-30.00-30.00-30.00-30.00-30.00
                  -30.00-30.00-30.00-30.00-30.00-30.00-30.00-30.00-30.00-30.00
                  -30.00-30.00-30.00-30.00-30.00-30.00-30.00-30.00-30.00-30.00
                  -30.00-30.00-30.00-30.00-30.00-30.00-30.00-30.00-30.00-30.00
                  -30.00-30.00-30.00-30.00-30.00-30.00-30.00-30.00-30.00-30.00
                  -30.00-30.00-30.00-30.00-30.00-30.00-30.00-30.00-30.00-30.00
 17 MHz = -30.00  -30.00-30.00-30.00-30.00-30.00-30.00-30.00-30.00-30.00-30.00
                  -30.00-30.00-30.00-30.00-30.00-30.00-30.00-30.00-30.00-30.00
                  -30.00-30.00-30.00-30.00-30.00-30.00-30.00-30.00-30.00-30.00
                  -30.00-30.00-30.00-30.00-30.00-30.00-30.00-30.00-30.00-30.00
                  -30.00-30.00-30.00-30.00-30.00-30.00-30.00-30.00-30.00-30.00
                  -30.00-30.00-30.00-30.00-30.00-30.00-30.00-30.00-30.00-30.00
                  -30.00-30.00-30.00-30.00-30.00-30.00-30.00-30.00-30.00-30.00
                  -30.00-30.00-30.00-30.00-30.00-30.00-30.00-30.00-30.00-30.00
                  -30.00-30.00-30.00-30.00-30.00-30.00-30.00-30.00-30.00-30.00
 18 MHz = -30.00  -30.00-30.00-30.00-30.00-30.00-30.00-30.00-30.00-30.00-30.00
                  -30.00-30.00-30.00-30.00-30.00-30.00-30.00-30.00-30.00-30.00
                  -30.00-30.00-30.00-30.00-30.00-30.00-30.00-30.00-30.00-30.00
                  -30.00-30.00-30.00-30.00-30.00-30.00-30.00-30.00-30.00-30.00
                  -30.00-30.00-30.00-30.00-30.00-30.00-30.00-30.00-30.00-30.00
                  -30.00-30.00-30.00-30.00-30.00-30.00-30.00-30.00-30.00-30.00
                  -30.00-30.00-30.00-30.00-30.00-30.00-30.00-30.00-30.00-30.00
                  -30.00-30.00-30.00-30.00-30.00-30.00-30.00-30.00-30.00-30.00
                  -30.00-30.00-30.00-30.00-30.00-30.00-30.00-30.00-30.00-30.00
 19 MHz = -30.00  -30.00-30.00-30.00-30.00-30.00-30.00-30.00-30.00-30.00-30.00
                  -30.00-30.00-30.00-30.00-30.00-30.00-30.00-30.00-30.00-30.00
                  -30.00-30.00-30.00-30.00-30.00-30.00-30.00-30.00-30.00-30.00
                  -30.00-30.00-30.00-30.00-30.00-30.00-30.00-30.00-30.00-30.00
                  -30.00-30.00-30.00-30.00-30.00-30.00-30.00-30.00-30.00-30.00
                  -30.00-30.00-30.00-30.00-30.00-30.00-30.00-30.00-30.00-30.00
                  -30.00-30.00-30.00-30.00-30.00-30.00-30.00-30.00-30.00-30.00
                  -30.00-30.00-30.00-30.00-30.00-30.00-30.00-30.00-30.00-30.00
                  -30.00-30.00-30.00-30.00-30.00-30.00-30.00-30.00-30.00-30.00
 20 MHz = -30.00  -30.00-30.00-30.00-30.00-30.00-30.00-30.00-30.00-30.00-30.00
                  -30.00-30.00-30.00-30.00-30.00-30.00-30.00-30.00-30.00-30.00
                  -30.00-30.00-30.00-30.00-30.00-30.00-30.00-30.00-30.00-30.00
                  -30.00-30.00-30.00-30.00-30.00-30.00-30.00-30.00-30.00-30.00
                  -30.00-30.00-30.00-30.00-30.00-30.00-30.00-30.00-30.00-30.00
                  -30.00-30.00-30.00-30.00-30.00-30.00-30.00-30.00-30.00-30.00
                  -30.00-30.00-30.00-30.00-30.00-30.00-30.00-30.00-30.00-30.00
                  -30.00-30.00-30.00-30.00-30.00-30.00-30.00-30.00-30.00-30.00
                  -30.00-30.00-30.00-30.00-30.00-30.00-30.00-30.00-30.00-30.00
 21 MHz = -30.00  -30.00-30.00-30.00-30.00-30.00-30.00-30.00-30.00-30.00-30.00
                  -30.00-30.00-30.00-30.00-30.00-30.00-30.00-30.00-30.00-30.00
                  -30.00-30.00-30.00-30.00-30.00-30.00-30.00-30.00-30.00-30.00
                  -30.00-30.00-30.00-30.00-30.00-30.00-30.00-30.00-30.00-30.00
                  -30.00-30.00-30.00-30.00-30.00-30.00-30.00-30.00-30.00-30.00
                  -30.00-30.00-30.00-30.00-30.00-30.00-30.00-30.00-30.00-30.00
                  -30.00-30.00-30.00-30.00-30.00-30.00-30.00-30.00-30.00-30.00
                  -30.00-30.00-30.00-30.00-30.00-30.00-30.00-30.00-30.00-30.00
                  -30.00-30.00-30.00-30.00-30.00-30.00-30.00-30.00-30.00-30.00
 22 MHz = -30.00  -30.00-30.00-30.00-30.00-30.00-30.00-30.00-30.00-30.00-30.00
                  -30.00-30.00-30.00-30.00-30.00-30.00-30.00-30.00-30.00-30.00
                  -30.00-30.00-30.00-30.00-30.00-30.00-30.00-30.00-30.00-30.00
                  -30.00-30.00-30.00-30.00-30.00-30.00-30.00-30.00-30.00-30.00
                  -30.00-30.00-30.00-30.00-30.00-30.00-30.00-30.00-30.00-30.00
                  -30.00-30.00-30.00-30.00-30.00-30.00-30.00-30.00-30.00-30.00
                  -30.00-30.00-30.00-30.00-30.00-30.00-30.00-30.00-30.00-30.00
                  -30.00-30.00-30.00-30.00-30.00-30.00-30.00-30.00-30.00-30.00
                  -30.00-30.00-30.00-30.00-30.00-30.00-30.00-30.00-30.00-30.00
 23 MHz = -30.00  -30.00-30.00-30.00-30.00-30.00-30.00-30.00-30.00-30.00-30.00
                  -30.00-30.00-30.00-30.00-30.00-30.00-30.00-30.00-30.00-30.00
                  -30.00-30.00-30.00-30.00-30.00-30.00-30.00-30.00-30.00-30.00
                  -30.00-30.00-30.00-30.00-30.00-30.00-30.00-30.00-30.00-30.00
                  -30.00-30.00-30.00-30.00-30.00-30.00-30.00-30.00-30.00-30.00
                  -30.00-30.00-30.00-30.00-30.00-30.00-30.00-30.00-30.00-30.00
                  -30.00-30.00-30.00-30.00-30.00-30.00-30.00-30.00-30.00-30.00
                  -30.00-30.00-30.00-30.00-30.00-30.00-30.00-30.00-30.00-30.00
                  -30.00-30.00-30.00-30.00-30.00-30.00-30.00-30.00-30.00-30.00
 24 MHz = -30.00  -30.00-30.00-30.00-30.00-30.00-30.00-30.00-30.00-30.00-30.00
                  -30.00-30.00-30.00-30.00-30.00-30.00-30.00-30.00-30.00-30.00
                  -30.00-30.00-30.00-30.00-30.00-30.00-30.00-30.00-30.00-30.00
                  -30.00-30.00-30.00-30.00-30.00-30.00-30.00-30.00-30.00-30.00
                  -30.00-30.00-30.00-30.00-30.00-30.00-30.00-30.00-30.00-30.00
                  -30.00-30.00-30.00-30.00-30.00-30.00-30.00-30.00-30.00-30.00
                  -30.00-30.00-30.00-30.00-30.00-30.00-30.00-30.00-30.00-30.00
                  -30.00-30.00-30.00-30.00-30.00-30.00-30.00-30.00-30.00-30.00
                  -30.00-30.00-30.00-30.00-30.00-30.00-30.00-30.00-30.00-30.00
 25 MHz = -30.00  -30.00-30.00-30.00-30.00-30.00-30.00-30.00-30.00-30.00-30.00
                  -30.00-30.00-30.00-30.00-30.00-30.00-30.00-30.00-30.00-30.00
                  -30.00-30.00-30.00-30.00-30.00-30.00-30.00-30.00-30.00-30.00
                  -30.00-30.00-30.00-30.00-30.00-30.00-30.00-30.00-30.00-30.00
                  -30.00-30.00-30.00-30.00-30.00-30.00-30.00-30.00-30.00-30.00
                  -30.00-30.00-30.00-30.00-30.00-30.00-30.00-30.00-30.00-30.00
                  -30.00-30.00-30.00-30.00-30.00-30.00-30.00-30.00-30.00-30.00
                  -30.00-30.00-30.00-30.00-30.00-30.00-30.00-30.00-30.00-30.00
                  -30.00-30.00-30.00-30.00-30.00-30.00-30.00-30.00-30.00-30.00
 26 MHz = -30.00  -30.00-30.00-30.00-30.00-30.00-30.00-30.00-30.00-30.00-30.00
                  -30.00-30.00-30.00-30.00-30.00-30.00-30.00-30.00-30.00-30.00
                  -30.00-30.00-30.00-30.00-30.00-30.00-30.00-30.00-30.00-30.00
                  -30.00-30.00-30.00-30.00-30.00-30.00-30.00-30.00-30.00-30.00
                  -30.00-30.00-30.00-30.00-30.00-30.00-30.00-30.00-30.00-30.00
                  -30.00-30.00-30.00-30.00-30.00-30.00-30.00-30.00-30.00-30.00
                  -30.00-30.00-30.00-30.00-30.00-30.00-30.00-30.00-30.00-30.00
                  -30.00-30.00-30.00-30.00-30.00-30.00-30.00-30.00-30.00-30.00
                  -30.00-30.00-30.00-30.00-30.00-30.00-30.00-30.00-30.00-30.00
 27 MHz = -30.00  -30.00-30.00-30.00-30.00-30.00-30.00-30.00-30.00-30.00-30.00
                  -30.00-30.00-30.00-30.00-30.00-30.00-30.00-30.00-30.00-30.00
                  -30.00-30.00-30.00-30.00-30.00-30.00-30.00-30.00-30.00-30.00
                  -30.00-30.00-30.00-30.00-30.00-30.00-30.00-30.00-30.00-30.00
                  -30.00-30.00-30.00-30.00-30.00-30.00-30.00-30.00-30.00-30.00
                  -30.00-30.00-30.00-30.00-30.00-30.00-30.00-30.00-30.00-30.00
                  -30.00-30.00-30.00-30.00-30.00-30.00-30.00-30.00-30.00-30.00
                  -30.00-30.00-30.00-30.00-30.00-30.00-30.00-30.00-30.00-30.00
                  -30.00-30.00-30.00-30.00-30.00-30.00-30.00-30.00-30.00-30.00
 28 MHz = -30.00  -30.00-30.00-30.00-30.00-30.00-30.00-30.00-30.00-30.00-30.00
                  -30.00-30.00-30.00-30.00-30.00-30.00-30.00-30.00-30.00-30.00
                  -30.00-30.00-30.00-30.00-30.00-30.00-30.00-30.00-30.00-30.00
                  -30.00-30.00-30.00-30.00-30.00-30.00-30.00-30.00-30.00-30.00
                  -30.00-30.00-30.00-30.00-30.00-30.00-30.00-30.00-30.00-30.00
                  -30.00-30.00-30.00-30.00-30.00-30.00-30.00-30.00-30.00-30.00
                  -30.00-30.00-30.00-30.00-30.00-30.00-30.00-30.00-30.00-30.00
                  -30.00-30.00-30.00-30.00-30.00-30.00-30.00-30.00-30.00-30.00
                  -30.00-30.00-30.00-30.00-30.00-30.00-30.00-30.00-30.00-30.00
 29 MHz = -30.00  -30.00-30.00-30.00-30.00-30.00-30.00-30.00-30.00-30.00-30.00
                  -30.00-30.00-30.00-30.00-30.00-30.00-30.00-30.00-30.00-30.00
                  -30.00-30.00-30.00-30.00-30.00-30.00-30.00-30.00-30.00-30.00
                  -30.00-30.00-30.00-30.00-30.00-30.00-30.00-30.00-30.00-30.00
                  -30.00-30.00-30.00-30.00-30.00-30.00-30.00-30.00-30.00-30.00
                  -30.00-30.00-30.00-30.00-30.00-30.00-30.00-30.00-30.00-30.00
                  -30.00-30.00-30.00-30.00-30.00-30.00-30.00-30.00-30.00-30.00
                  -30.00-30.00-30.00-30.00-30.00-30.00-30.00-30.00-30.00-30.00
                  -30.00-30.00-30.00-30.00-30.00-30.00-30.00-30.00-30.00-30.00
 30 MHz = -30.00  -30.00-30.00-30.00-30.00-30.00-30.00-30.00-30.00-30.00-30.00
                  -30.00-30.00-30.00-30.00-30.00-30.00-30.00-30.00-30.00-30.00
                  -30.00-30.00-30.00-30.00-30.00-30.00-30.00-30.00-30.00-30.00
                  -30.00-30.00-30.00-30.00-30.00-30.00-30.00-30.00-30.00-30.00
                  -30.00-30.00-30.00-30.00-30.00-30.00-30.00-30.00-30.00-30.00
                  -30.00-30.00-30.00-30.00-30.00-30.00-30.00-30.00-30.00-30.00
                  -30.00-30.00-30.00-30.00-30.00-30.00-30.00-30.00-30.00-30.00
                  -30.00-30.00-30.00-30.00-30.00-30.00-30.00-30.00-30.00-30.00
                  -30.00-30.00-30.00-30.00-30.00-30.00-30.00-30.00-30.00-30.00
